File: Data/XRD/c1_Cs25FA50MA25.xy
5.00000 280.000
5.20000 231.000
5.40000 254.000
5.60000 245.000
5.80000 244.000
6.00000 208.000
6.20000 208.000
6.40000 216.000
6.60000 231.000
6.80000 196.000
7.00000 189.000
7.20000 162.000
7.40000 155.000
7.60000 198.000
7.80000 162.000
8.00000 164.000
8.20000 169.000
8.40000 141.000
8.60000 139.000
8.80000 152.000
9.00000 128.000
9.20000 145.000
9.40000 187.000
9.60000 199.000
9.80000 347.000
10.00000 246.000
10.20000 154.000
10.40000 119.000
10.60000 105.000
10.80000 127.000
11.00000 126.000
11.20000 125.000
11.40000 124.000
11.60000 121.000
11.80000 115.000
12.00000 110.000
12.20000 135.000
12.40000 155.000
12.60000 315.000
12.80000 234.000
13.00000 214.000
13.20000 177.000
13.40000 120.000
13.60000 211.000
13.80000 581.000
14.00000 1655.000
14.20000 334.000
14.40000 150.000
14.60000 117.000
14.80000 122.000
15.00000 97.000
15.20000 76.000
15.40000 95.000
15.60000 84.000
15.80000 67.000
16.00000 82.000
16.20000 74.000
16.40000 79.000
16.60000 82.000
16.80000 106.000
17.00000 113.000
17.20000 86.000
17.40000 86.000
17.60000 114.000
17.80000 88.000
18.00000 79.000
18.20000 72.000
18.40000 90.000
18.60000 88.000
18.80000 62.000
19.00000 86.000
19.20000 82.000
19.40000 82.000
19.60000 101.000
19.80000 212.000
20.00000 193.000
20.20000 87.000
20.40000 73.000
20.60000 83.000
20.80000 72.000
21.00000 90.000
21.20000 62.000
21.40000 75.000
21.60000 110.000
21.80000 82.000
22.00000 74.000
22.20000 78.000
22.40000 132.000
22.60000 205.000
22.80000 176.000
23.00000 108.000
23.20000 67.000
23.40000 58.000
23.60000 89.000
23.80000 83.000
24.00000 85.000
24.20000 152.000
24.40000 293.000
24.60000 123.000
24.80000 70.000
25.00000 82.000
25.20000 85.000
25.40000 101.000
25.60000 131.000
25.80000 95.000
26.00000 103.000
26.20000 205.000
26.40000 288.000
26.60000 140.000
26.80000 86.000
27.00000 125.000
27.20000 152.000
27.40000 166.000
27.60000 117.000
27.80000 126.000
28.00000 265.000
28.20000 863.000
28.40000 504.000
28.60000 109.000
28.80000 74.000
29.00000 59.000
29.20000 63.000
29.40000 58.000
29.60000 70.000
29.80000 65.000
30.00000 66.000
30.20000 66.000
30.40000 54.000
30.60000 61.000
30.80000 61.000
31.00000 68.000
31.20000 102.000
31.40000 194.000
31.60000 485.000
31.80000 378.000
32.00000 90.000
32.20000 62.000
32.40000 63.000
32.60000 89.000
32.80000 66.000
33.00000 59.000
33.20000 55.000
33.40000 62.000
33.60000 43.000
33.80000 43.000
34.00000 34.000
34.20000 35.000
34.40000 55.000
34.60000 92.000
34.80000 118.000
35.00000 70.000
35.20000 48.000
35.40000 32.000
35.60000 55.000
35.80000 60.000
36.00000 48.000
36.20000 54.000
36.40000 50.000
36.60000 35.000
36.80000 30.000
37.00000 37.000
37.20000 35.000
37.40000 60.000
37.60000 97.000
37.80000 75.000
38.00000 38.000
38.20000 21.000
38.40000 42.000
38.60000 53.000
38.80000 33.000
39.00000 34.000
39.20000 40.000
39.40000 75.000
39.60000 69.000
39.80000 54.000
40.00000 68.000
40.20000 174.000
40.40000 283.000
40.60000 170.000
40.80000 59.000
41.00000 57.000
41.20000 66.000
41.40000 48.000
41.60000 68.000
41.80000 57.000
42.00000 44.000
42.20000 66.000
42.40000 48.000
42.60000 59.000
42.80000 131.000
43.00000 156.000
43.20000 69.000
43.40000 37.000
43.60000 41.000
43.80000 37.000
44.00000 37.000
44.20000 50.000
44.40000 70.000
44.60000 41.000
44.80000 22.000
45.00000 30.000
45.20000 35.000
45.40000 43.000
45.60000 33.000
45.80000 42.000
46.00000 35.000
46.20000 25.000
46.40000 34.000
46.60000 31.000
46.80000 36.000
47.00000 33.000
47.20000 28.000
47.40000 28.000
47.60000 33.000
47.80000 30.000
48.00000 31.000
48.20000 24.000
48.40000 29.000
48.60000 35.000
48.80000 24.000
49.00000 19.000
49.20000 33.000
49.40000 39.000
49.60000 30.000
49.80000 46.000
50.00000 73.000
50.20000 58.000
50.40000 33.000
50.60000 32.000
50.80000 26.000
51.00000 31.000
51.20000 32.000
51.40000 24.000
51.60000 34.000
51.80000 46.000
52.00000 47.000
52.20000 46.000
52.40000 42.000
52.60000 39.000
52.80000 30.000
53.00000 26.000
53.20000 34.000
53.40000 43.000
53.60000 36.000
53.80000 32.000
54.00000 22.000
54.20000 46.000
54.40000 36.000
54.60000 25.000
54.80000 29.000
55.00000 18.000
55.20000 19.000
55.40000 26.000
55.60000 24.000
55.80000 24.000
56.00000 23.000
56.20000 19.000
56.40000 30.000
56.60000 19.000
56.80000 25.000
57.00000 27.000
57.20000 28.000
57.40000 20.000
57.60000 13.000
57.80000 34.000
58.00000 25.000
58.20000 32.000
58.40000 34.000
58.60000 36.000
58.80000 35.000
59.00000 12.000
59.20000 21.000
59.40000 28.000
59.60000 30.000
59.80000 25.000
59.92000 31.000