File: Data/XRD/c2_Cs25FA71MA04.xy
5.00000 316.000
5.20000 388.000
5.40000 355.000
5.60000 338.000
5.80000 354.000
6.00000 326.000
6.20000 299.000
6.40000 315.000
6.60000 280.000
6.80000 325.000
7.00000 273.000
7.20000 255.000
7.40000 263.000
7.60000 254.000
7.80000 249.000
8.00000 242.000
8.20000 243.000
8.40000 214.000
8.60000 206.000
8.80000 213.000
9.00000 204.000
9.20000 189.000
9.40000 225.000
9.60000 284.000
9.80000 372.000
10.00000 299.000
10.20000 150.000
10.40000 149.000
10.60000 171.000
10.80000 168.000
11.00000 167.000
11.20000 199.000
11.40000 163.000
11.60000 152.000
11.80000 155.000
12.00000 158.000
12.20000 180.000
12.40000 305.000
12.60000 690.000
12.80000 400.000
13.00000 247.000
13.20000 216.000
13.40000 218.000
13.60000 431.000
13.80000 1174.000
14.00000 1828.000
14.20000 208.000
14.40000 137.000
14.60000 145.000
14.80000 109.000
15.00000 121.000
15.20000 131.000
15.40000 112.000
15.60000 106.000
15.80000 99.000
16.00000 120.000
16.20000 112.000
16.40000 108.000
16.60000 111.000
16.80000 124.000
17.00000 141.000
17.20000 121.000
17.40000 127.000
17.60000 133.000
17.80000 129.000
18.00000 101.000
18.20000 102.000
18.40000 98.000
18.60000 107.000
18.80000 88.000
19.00000 105.000
19.20000 100.000
19.40000 100.000
19.60000 226.000
19.80000 423.000
20.00000 131.000
20.20000 114.000
20.40000 86.000
20.60000 95.000
20.80000 106.000
21.00000 111.000
21.20000 85.000
21.40000 98.000
21.60000 119.000
21.80000 126.000
22.00000 97.000
22.20000 94.000
22.40000 106.000
22.60000 206.000
22.80000 170.000
23.00000 134.000
23.20000 80.000
23.40000 92.000
23.60000 113.000
23.80000 98.000
24.00000 132.000
24.20000 384.000
24.40000 251.000
24.60000 99.000
24.80000 89.000
25.00000 107.000
25.20000 151.000
25.40000 159.000
25.60000 191.000
25.80000 150.000
26.00000 128.000
26.20000 222.000
26.40000 377.000
26.60000 214.000
26.80000 117.000
27.00000 185.000
27.20000 277.000
27.40000 213.000
27.60000 153.000
27.80000 208.000
28.00000 893.000
28.20000 1016.000
28.40000 158.000
28.60000 92.000
28.80000 90.000
29.00000 80.000
29.20000 62.000
29.40000 97.000
29.60000 90.000
29.80000 97.000
30.00000 82.000
30.20000 69.000
30.40000 73.000
30.60000 72.000
30.80000 98.000
31.00000 98.000
31.20000 212.000
31.40000 834.000
31.60000 773.000
31.80000 96.000
32.00000 65.000
32.20000 50.000
32.40000 64.000
32.60000 90.000
32.80000 75.000
33.00000 58.000
33.20000 80.000
33.40000 78.000
33.60000 51.000
33.80000 58.000
34.00000 60.000
34.20000 66.000
34.40000 87.000
34.60000 213.000
34.80000 93.000
35.00000 59.000
35.20000 53.000
35.40000 65.000
35.60000 52.000
35.80000 73.000
36.00000 82.000
36.20000 69.000
36.40000 50.000
36.60000 78.000
36.80000 57.000
37.00000 40.000
37.20000 51.000
37.40000 76.000
37.60000 174.000
37.80000 133.000
38.00000 55.000
38.20000 55.000
38.40000 59.000
38.60000 81.000
38.80000 57.000
39.00000 46.000
39.20000 59.000
39.40000 107.000
39.60000 104.000
39.80000 88.000
40.00000 241.000
40.20000 582.000
40.40000 169.000
40.60000 93.000
40.80000 59.000
41.00000 81.000
41.20000 127.000
41.40000 74.000
41.60000 76.000
41.80000 72.000
42.00000 55.000
42.20000 82.000
42.40000 66.000
42.60000 265.000
42.80000 324.000
43.00000 92.000
43.20000 50.000
43.40000 55.000
43.60000 52.000
43.80000 48.000
44.00000 52.000
44.20000 49.000
44.40000 87.000
44.60000 52.000
44.80000 57.000
45.00000 53.000
45.20000 56.000
45.40000 49.000
45.60000 58.000
45.80000 38.000
46.00000 42.000
46.20000 41.000
46.40000 70.000
46.60000 57.000
46.80000 30.000
47.00000 56.000
47.20000 37.000
47.40000 46.000
47.60000 50.000
47.80000 35.000
48.00000 51.000
48.20000 33.000
48.40000 42.000
48.60000 45.000
48.80000 44.000
49.00000 27.000
49.20000 37.000
49.40000 54.000
49.60000 114.000
49.80000 129.000
50.00000 67.000
50.20000 46.000
50.40000 40.000
50.60000 49.000
50.80000 47.000
51.00000 39.000
51.20000 29.000
51.40000 41.000
51.60000 39.000
51.80000 91.000
52.00000 91.000
52.20000 60.000
52.40000 39.000
52.60000 58.000
52.80000 52.000
53.00000 45.000
53.20000 48.000
53.40000 48.000
53.60000 50.000
53.80000 51.000
54.00000 66.000
54.20000 66.000
54.40000 43.000
54.60000 33.000
54.80000 22.000
55.00000 33.000
55.20000 29.000
55.40000 36.000
55.60000 33.000
55.80000 42.000
56.00000 41.000
56.20000 42.000
56.40000 54.000
56.60000 39.000
56.80000 33.000
57.00000 22.000
57.20000 30.000
57.40000 35.000
57.60000 30.000
57.80000 32.000
58.00000 55.000
58.20000 62.000
58.40000 43.000
58.60000 40.000
58.80000 30.000
59.00000 40.000
59.20000 34.000
59.40000 50.000
59.60000 36.000
59.80000 57.000
59.96000 109.000