File: Data/XRD/r1_Cs67FA24MA10.xy
5.00000 374.000
5.20000 377.000
5.40000 366.000
5.60000 323.000
5.80000 316.000
6.00000 310.000
6.20000 313.000
6.40000 277.000
6.60000 296.000
6.80000 285.000
7.00000 249.000
7.20000 259.000
7.40000 253.000
7.60000 260.000
7.80000 241.000
8.00000 202.000
8.20000 234.000
8.40000 229.000
8.60000 226.000
8.80000 198.000
9.00000 201.000
9.20000 200.000
9.40000 288.000
9.60000 358.000
9.80000 570.000
10.00000 396.000
10.20000 186.000
10.40000 174.000
10.60000 164.000
10.80000 170.000
11.00000 144.000
11.20000 180.000
11.40000 145.000
11.60000 160.000
11.80000 153.000
12.00000 156.000
12.20000 158.000
12.40000 222.000
12.60000 397.000
12.80000 337.000
13.00000 368.000
13.20000 229.000
13.40000 193.000
13.60000 318.000
13.80000 814.000
14.00000 1606.000
14.20000 228.000
14.40000 144.000
14.60000 119.000
14.80000 114.000
15.00000 113.000
15.20000 127.000
15.40000 121.000
15.60000 118.000
15.80000 115.000
16.00000 99.000
16.20000 110.000
16.40000 104.000
16.60000 120.000
16.80000 173.000
17.00000 223.000
17.20000 165.000
17.40000 139.000
17.60000 220.000
17.80000 133.000
18.00000 107.000
18.20000 121.000
18.40000 96.000
18.60000 100.000
18.80000 92.000
19.00000 105.000
19.20000 108.000
19.40000 121.000
19.60000 171.000
19.80000 232.000
20.00000 129.000
20.20000 103.000
20.40000 71.000
20.60000 89.000
20.80000 111.000
21.00000 127.000
21.20000 94.000
21.40000 99.000
21.60000 172.000
21.80000 184.000
22.00000 83.000
22.20000 118.000
22.40000 160.000
22.60000 350.000
22.80000 215.000
23.00000 126.000
23.20000 108.000
23.40000 101.000
23.60000 94.000
23.80000 104.000
24.00000 104.000
24.20000 154.000
24.40000 156.000
24.60000 97.000
24.80000 92.000
25.00000 115.000
25.20000 169.000
25.40000 248.000
25.60000 326.000
25.80000 229.000
26.00000 232.000
26.20000 492.000
26.40000 762.000
26.60000 269.000
26.80000 151.000
27.00000 347.000
27.20000 452.000
27.40000 447.000
27.60000 196.000
27.80000 176.000
28.00000 561.000
28.20000 970.000
28.40000 205.000
28.60000 91.000
28.80000 104.000
29.00000 81.000
29.20000 97.000
29.40000 125.000
29.60000 89.000
29.80000 81.000
30.00000 84.000
30.20000 105.000
30.40000 87.000
30.60000 70.000
30.80000 75.000
31.00000 89.000
31.20000 251.000
31.40000 503.000
31.60000 552.000
31.80000 118.000
32.00000 109.000
32.20000 83.000
32.40000 119.000
32.60000 149.000
32.80000 75.000
33.00000 59.000
33.20000 132.000
33.40000 122.000
33.60000 63.000
33.80000 54.000
34.00000 62.000
34.20000 86.000
34.40000 88.000
34.60000 136.000
34.80000 84.000
35.00000 67.000
35.20000 92.000
35.40000 58.000
35.60000 94.000
35.80000 128.000
36.00000 103.000
36.20000 84.000
36.40000 78.000
36.60000 94.000
36.80000 83.000
37.00000 64.000
37.20000 63.000
37.40000 222.000
37.60000 297.000
37.80000 222.000
38.00000 73.000
38.20000 61.000
38.40000 79.000
38.60000 60.000
38.80000 52.000
39.00000 56.000
39.20000 92.000
39.40000 141.000
39.60000 125.000
39.80000 105.000
40.00000 121.000
40.20000 342.000
40.40000 176.000
40.60000 165.000
40.80000 85.000
41.00000 149.000
41.20000 162.000
41.40000 61.000
41.60000 68.000
41.80000 76.000
42.00000 86.000
42.20000 128.000
42.40000 71.000
42.60000 96.000
42.80000 180.000
43.00000 89.000
43.20000 58.000
43.40000 42.000
43.60000 53.000
43.80000 38.000
44.00000 71.000
44.20000 98.000
44.40000 144.000
44.60000 72.000
44.80000 53.000
45.00000 42.000
45.20000 42.000
45.40000 38.000
45.60000 48.000
45.80000 62.000
46.00000 52.000
46.20000 52.000
46.40000 75.000
46.60000 67.000
46.80000 19.000
47.00000 44.000
47.20000 41.000
47.40000 34.000
47.60000 49.000
47.80000 45.000
48.00000 50.000
48.20000 51.000
48.40000 67.000
48.60000 57.000
48.80000 32.000
49.00000 48.000
49.20000 43.000
49.40000 26.000
49.60000 65.000
49.80000 80.000
50.00000 61.000
50.20000 56.000
50.40000 43.000
50.60000 52.000
50.80000 54.000
51.00000 36.000
51.20000 40.000
51.40000 36.000
51.60000 44.000
51.80000 69.000
52.00000 73.000
52.20000 55.000
52.40000 50.000
52.60000 62.000
52.80000 64.000
53.00000 54.000
53.20000 84.000
53.40000 67.000
53.60000 52.000
53.80000 47.000
54.00000 67.000
54.20000 66.000
54.40000 43.000
54.60000 31.000
54.80000 38.000
55.00000 30.000
55.20000 27.000
55.40000 42.000
55.60000 50.000
55.80000 59.000
56.00000 43.000
56.20000 49.000
56.40000 47.000
56.60000 50.000
56.80000 45.000
57.00000 37.000
57.20000 34.000
57.40000 36.000
57.60000 61.000
57.80000 39.000
58.00000 42.000
58.20000 49.000
58.40000 50.000
58.60000 38.000
58.80000 29.000
59.00000 25.000
59.20000 46.000
59.40000 46.000
59.60000 54.000
59.80000 57.000
59.96000 57.000