File: Data/XRD/r2_Cs37FA62MA01.xy
5.00000 365.000
5.20000 393.000
5.40000 352.000
5.60000 335.000
5.80000 337.000
6.00000 282.000
6.20000 310.000
6.40000 312.000
6.60000 270.000
6.80000 274.000
7.00000 259.000
7.20000 260.000
7.40000 231.000
7.60000 234.000
7.80000 223.000
8.00000 204.000
8.20000 221.000
8.40000 215.000
8.60000 220.000
8.80000 232.000
9.00000 207.000
9.20000 208.000
9.40000 237.000
9.60000 309.000
9.80000 469.000
10.00000 267.000
10.20000 181.000
10.40000 169.000
10.60000 168.000
10.80000 195.000
11.00000 184.000
11.20000 167.000
11.40000 161.000
11.60000 146.000
11.80000 181.000
12.00000 175.000
12.20000 168.000
12.40000 283.000
12.60000 632.000
12.80000 328.000
13.00000 321.000
13.20000 194.000
13.40000 269.000
13.60000 447.000
13.80000 1313.000
14.00000 1887.000
14.20000 228.000
14.40000 144.000
14.60000 133.000
14.80000 146.000
15.00000 106.000
15.20000 120.000
15.40000 111.000
15.60000 123.000
15.80000 100.000
16.00000 97.000
16.20000 132.000
16.40000 132.000
16.60000 95.000
16.80000 118.000
17.00000 162.000
17.20000 127.000
17.40000 123.000
17.60000 147.000
17.80000 125.000
18.00000 95.000
18.20000 101.000
18.40000 103.000
18.60000 99.000
18.80000 93.000
19.00000 99.000
19.20000 109.000
19.40000 118.000
19.60000 214.000
19.80000 305.000
20.00000 108.000
20.20000 102.000
20.40000 90.000
20.60000 96.000
20.80000 106.000
21.00000 138.000
21.20000 105.000
21.40000 105.000
21.60000 114.000
21.80000 123.000
22.00000 99.000
22.20000 104.000
22.40000 117.000
22.60000 262.000
22.80000 176.000
23.00000 93.000
23.20000 94.000
23.40000 116.000
23.60000 106.000
23.80000 105.000
24.00000 121.000
24.20000 442.000
24.40000 181.000
24.60000 107.000
24.80000 105.000
25.00000 110.000
25.20000 153.000
25.40000 221.000
25.60000 294.000
25.80000 205.000
26.00000 132.000
26.20000 267.000
26.40000 379.000
26.60000 184.000
26.80000 116.000
27.00000 298.000
27.20000 394.000
27.40000 255.000
27.60000 172.000
27.80000 205.000
28.00000 1218.000
28.20000 793.000
28.40000 161.000
28.60000 91.000
28.80000 84.000
29.00000 96.000
29.20000 87.000
29.40000 109.000
29.60000 84.000
29.80000 64.000
30.00000 63.000
30.20000 89.000
30.40000 94.000
30.60000 72.000
30.80000 91.000
31.00000 93.000
31.20000 232.000
31.40000 1028.000
31.60000 521.000
31.80000 107.000
32.00000 82.000
32.20000 90.000
32.40000 91.000
32.60000 128.000
32.80000 56.000
33.00000 49.000
33.20000 100.000
33.40000 96.000
33.60000 46.000
33.80000 53.000
34.00000 65.000
34.20000 63.000
34.40000 99.000
34.60000 148.000
34.80000 58.000
35.00000 55.000
35.20000 63.000
35.40000 65.000
35.60000 67.000
35.80000 89.000
36.00000 95.000
36.20000 72.000
36.40000 53.000
36.60000 61.000
36.80000 65.000
37.00000 55.000
37.20000 46.000
37.40000 133.000
37.60000 198.000
37.80000 130.000
38.00000 38.000
38.20000 55.000
38.40000 65.000
38.60000 55.000
38.80000 46.000
39.00000 53.000
39.20000 74.000
39.40000 93.000
39.60000 116.000
39.80000 110.000
40.00000 317.000
40.20000 460.000
40.40000 131.000
40.60000 106.000
40.80000 85.000
41.00000 99.000
41.20000 95.000
41.40000 60.000
41.60000 71.000
41.80000 53.000
42.00000 75.000
42.20000 109.000
42.40000 83.000
42.60000 346.000
42.80000 244.000
43.00000 63.000
43.20000 41.000
43.40000 41.000
43.60000 60.000
43.80000 54.000
44.00000 54.000
44.20000 64.000
44.40000 88.000
44.60000 72.000
44.80000 39.000
45.00000 50.000
45.20000 52.000
45.40000 44.000
45.60000 46.000
45.80000 44.000
46.00000 44.000
46.20000 49.000
46.40000 69.000
46.60000 57.000
46.80000 40.000
47.00000 48.000
47.20000 47.000
47.40000 56.000
47.60000 44.000
47.80000 52.000
48.00000 53.000
48.20000 51.000
48.40000 41.000
48.60000 55.000
48.80000 40.000
49.00000 32.000
49.20000 32.000
49.40000 47.000
49.60000 140.000
49.80000 95.000
50.00000 51.000
50.20000 35.000
50.40000 50.000
50.60000 49.000
50.80000 51.000
51.00000 35.000
51.20000 37.000
51.40000 32.000
51.60000 46.000
51.80000 136.000
52.00000 90.000
52.20000 45.000
52.40000 56.000
52.60000 37.000
52.80000 43.000
53.00000 42.000
53.20000 59.000
53.40000 60.000
53.60000 41.000
53.80000 41.000
54.00000 67.000
54.20000 63.000
54.40000 31.000
54.60000 34.000
54.80000 31.000
55.00000 24.000
55.20000 22.000
55.40000 36.000
55.60000 36.000
55.80000 41.000
56.00000 36.000
56.20000 41.000
56.40000 42.000
56.60000 39.000
56.80000 26.000
57.00000 31.000
57.20000 34.000
57.40000 30.000
57.60000 37.000
57.80000 40.000
58.00000 83.000
58.20000 52.000
58.40000 40.000
58.60000 31.000
58.80000 33.000
59.00000 30.000
59.20000 37.000
59.40000 41.000
59.60000 48.000
59.80000 56.000
59.96000 146.000