File: Data/XRD/r3_Cs75FA0MA25.xy
5.00000 267.000
5.20000 265.000
5.40000 268.000
5.60000 239.000
5.80000 217.000
6.00000 211.000
6.20000 231.000
6.40000 206.000
6.60000 223.000
6.80000 200.000
7.00000 201.000
7.20000 176.000
7.40000 176.000
7.60000 186.000
7.80000 192.000
8.00000 186.000
8.20000 161.000
8.40000 176.000
8.60000 165.000
8.80000 182.000
9.00000 166.000
9.20000 192.000
9.40000 239.000
9.60000 376.000
9.80000 610.000
10.00000 320.000
10.20000 163.000
10.40000 151.000
10.60000 112.000
10.80000 118.000
11.00000 140.000
11.20000 111.000
11.40000 98.000
11.60000 112.000
11.80000 100.000
12.00000 109.000
12.20000 126.000
12.40000 144.000
12.60000 280.000
12.80000 253.000
13.00000 456.000
13.20000 144.000
13.40000 107.000
13.60000 111.000
13.80000 134.000
14.00000 265.000
14.20000 522.000
14.40000 138.000
14.60000 107.000
14.80000 77.000
15.00000 86.000
15.20000 87.000
15.40000 89.000
15.60000 82.000
15.80000 76.000
16.00000 79.000
16.20000 62.000
16.40000 89.000
16.60000 92.000
16.80000 179.000
17.00000 162.000
17.20000 98.000
17.40000 109.000
17.60000 200.000
17.80000 100.000
18.00000 60.000
18.20000 73.000
18.40000 74.000
18.60000 56.000
18.80000 58.000
19.00000 61.000
19.20000 80.000
19.40000 82.000
19.60000 89.000
19.80000 95.000
20.00000 113.000
20.20000 113.000
20.40000 78.000
20.60000 73.000
20.80000 75.000
21.00000 126.000
21.20000 82.000
21.40000 97.000
21.60000 138.000
21.80000 96.000
22.00000 64.000
22.20000 67.000
22.40000 185.000
22.60000 317.000
22.80000 135.000
23.00000 47.000
23.20000 81.000
23.40000 72.000
23.60000 100.000
23.80000 59.000
24.00000 57.000
24.20000 52.000
24.40000 67.000
24.60000 107.000
24.80000 69.000
25.00000 77.000
25.20000 155.000
25.40000 159.000
25.60000 241.000
25.80000 175.000
26.00000 264.000
26.20000 527.000
26.40000 455.000
26.60000 170.000
26.80000 135.000
27.00000 289.000
27.20000 360.000
27.40000 276.000
27.60000 125.000
27.80000 65.000
28.00000 71.000
28.20000 79.000
28.40000 132.000
28.60000 312.000
28.80000 126.000
29.00000 88.000
29.20000 67.000
29.40000 92.000
29.60000 73.000
29.80000 69.000
30.00000 52.000
30.20000 69.000
30.40000 60.000
30.60000 78.000
30.80000 40.000
31.00000 95.000
31.20000 233.000
31.40000 129.000
31.60000 63.000
31.80000 75.000
32.00000 176.000
32.20000 131.000
32.40000 129.000
32.60000 106.000
32.80000 60.000
33.00000 59.000
33.20000 105.000
33.40000 68.000
33.60000 48.000
33.80000 43.000
34.00000 57.000
34.20000 52.000
34.40000 64.000
34.60000 55.000
34.80000 53.000
35.00000 57.000
35.20000 78.000
35.40000 60.000
35.60000 82.000
35.80000 74.000
36.00000 55.000
36.20000 57.000
36.40000 79.000
36.60000 62.000
36.80000 57.000
37.00000 50.000
37.20000 86.000
37.40000 178.000
37.60000 209.000
37.80000 96.000
38.00000 40.000
38.20000 34.000
38.40000 43.000
38.60000 43.000
38.80000 38.000
39.00000 51.000
39.20000 61.000
39.40000 67.000
39.60000 51.000
39.80000 51.000
40.00000 49.000
40.20000 52.000
40.40000 85.000
40.60000 104.000
40.80000 110.000
41.00000 118.000
41.20000 69.000
41.40000 45.000
41.60000 47.000
41.80000 40.000
42.00000 60.000
42.20000 63.000
42.40000 36.000
42.60000 47.000
42.80000 48.000
43.00000 42.000
43.20000 47.000
43.40000 51.000
43.60000 43.000
43.80000 48.000
44.00000 78.000
44.20000 75.000
44.40000 79.000
44.60000 35.000
44.80000 36.000
45.00000 29.000
45.20000 33.000
45.40000 29.000
45.60000 38.000
45.80000 42.000
46.00000 20.000
46.20000 45.000
46.40000 55.000
46.60000 35.000
46.80000 34.000
47.00000 30.000
47.20000 37.000
47.40000 23.000
47.60000 33.000
47.80000 45.000
48.00000 36.000
48.20000 39.000
48.40000 49.000
48.60000 31.000
48.80000 26.000
49.00000 29.000
49.20000 21.000
49.40000 30.000
49.60000 37.000
49.80000 40.000
50.00000 34.000
50.20000 42.000
50.40000 47.000
50.60000 53.000
50.80000 33.000
51.00000 18.000
51.20000 32.000
51.40000 34.000
51.60000 36.000
51.80000 60.000
52.00000 45.000
52.20000 36.000
52.40000 34.000
52.60000 46.000
52.80000 52.000
53.00000 59.000
53.20000 56.000
53.40000 38.000
53.60000 30.000
53.80000 36.000
54.00000 34.000
54.20000 43.000
54.40000 16.000
54.60000 18.000
54.80000 30.000
55.00000 22.000
55.20000 21.000
55.40000 27.000
55.60000 33.000
55.80000 35.000
56.00000 35.000
56.20000 38.000
56.40000 27.000
56.60000 30.000
56.80000 34.000
57.00000 19.000
57.20000 24.000
57.40000 21.000
57.60000 32.000
57.80000 25.000
58.00000 22.000
58.20000 23.000
58.40000 21.000
58.60000 22.000
58.80000 23.000
59.00000 26.000
59.20000 31.000
59.40000 27.000
59.60000 31.000
59.80000 30.000
59.92000 40.000